# Wilkinson Microwave Anisotropy Probe (WMAP) 7-year data release.
# WMAP 7-Year Combined TT Power Spectrum, version 4.1 (June 2010)
#
# References: - WMAP Explanatory Supplement: http://lambda.gsfc.nasa.gov/
#             - Larson, et.al. (2010)
#
# Column 1 = mean multipole moment l for the bin
# Column 2 = smallest l contributing to the bin
# Column 3 = largest l contributing to the bin
# Column 4 = mean value of TT power spectrum (=  l(l+1)/2pi * C_l) in the bin,
#             units = uK^2.  The mean is unweighted.
# Column 5 = 'Error' for binned value, as computed from diagonal terms of the
#             Fisher matrix, units = uK^2.
#             Included only as an estimate of their magnitude.  The
#             multipole moments are slightly coupled, so a correct
#             treatment of errors requires use of the entire Fisher matrix.
# Column 6 = portion of column5 error attributed to measurement errors,
#             in "2SN + NN" form, units = uK^2.
# Column 7 = portion of column5 error attributed to cosmic variance, 
#             assuming the best-fit LCDM 
#
     2     2     2       200.8669       929.0538         4.8079       929.0413
     3     3     3      1050.6552       730.8405         5.1676       730.8223
     4     4     5      1105.4456       394.8929         3.9368       394.8733
     6     6     7      1021.8688       303.9497         4.2760       303.9196
     9     8    11       743.2494       171.4857         3.3958       171.4521
    13    12    14       790.5558       169.3479         4.4429       169.2896
    17    15    19       839.5955       119.2514         3.9148       119.1871
    22    20    24       692.2186       112.8267         4.5352       112.7355
    27    25    30       991.5222       100.3810         4.7710       100.2676
    33    31    36      1145.6143        99.9714         5.4743        99.8214
    40    37    44      1468.0931        87.8010         5.4773        87.6300
    48    45    52      1379.1556        90.4102         6.3486        90.1870
    56    53    60      1536.2758        93.9473         7.2621        93.6662
    65    61    70      1784.3577        88.4015         7.4714        88.0852
    76    71    81      1976.9724        89.9917         8.2840        89.6096
    87    82    92      2382.0325        96.7892         9.5936        96.3125
    98    93   104      2627.6938       100.1904        10.6037        99.6277
   111   105   117      3128.0676       104.6028        11.7821       103.9371
   125   118   132      3534.8699       106.2559        12.7505       105.4881
   140   133   147      4277.5454       115.3324        14.7607       114.3839
   155   148   163      4557.5205       119.5267        16.3651       118.4011
   172   164   181      4989.1289       118.7423        17.5770       117.4342
   191   182   200      5559.9526       119.0454        19.3087       117.4690
   210   201   220      5767.8423       115.7492        20.8859       113.8493
   231   221   241      5749.6899       108.5127        22.1822       106.2212
   253   242   265      5383.4771        92.9448        22.1342        90.2708
   278   266   290      4843.1138        78.5558        22.5272        75.2565
   304   291   317      3942.9053        61.5311        21.8706        57.5130
   332   318   347      3049.6833        45.0657        20.4248        40.1715
   363   348   379      2274.7463        33.7413        19.4843        27.5470
   397   380   415      1792.1470        27.8526        19.3320        20.0510
   436   416   456      1827.6000        28.6277        21.7650        18.5965
   479   457   502      2319.4348        34.0367        27.0326        20.6817
   526   503   550      2533.1350        40.9915        34.4236        22.2558
   575   551   600      2451.4395        46.4701        41.9151        20.0648
   625   601   650      2010.5001        52.0223        48.8635        17.8515
   675   651   700      1757.3229        63.4375        61.6058        15.1341
   725   701   750      2011.6670        83.8517        82.3053        16.0295
   775   751   800      2270.5327       112.2518       110.7630        18.2215
   825   801   850      2593.9500       147.7002       146.5398        18.4784
   875   851   900      2277.0334       190.7905       190.1455        15.6755
   925   901   950      2050.6162       244.5742       244.3099        11.3673
   975   951  1000      1332.9216       315.7575       315.6552         8.0361
  1050  1001  1100       993.2227       342.5453       342.5078         5.0686
  1150  1101  1200       992.3788       613.2317       613.2094         5.2274
