# Wilkinson Microwave Anisotropy Probe (WMAP) 7-year data release.
# WMAP 7-Year Combined BB Power Spectrum, version 4.1 (October 2010)
#
# References: - WMAP Explanatory Supplement: http://lambda.gsfc.nasa.gov/
#             - Larson, et al. (2010)
#
# Column 1 = multipole moment l.
# Column 2 = BB power spectrum, l(l+1)/2pi * C_l, units = uK^2.
#            The Master estimate is used.
# Column 3 = 'Error' derived from diagonal terms of Fisher matrix, units = uK^2.
#            These are included only as an estimate of their magnitude.
#            The multipole moments are slightly coupled, so a correct
#            treatment of errors requires use of the entire Fisher matrix
#            or the WMAP likelihood code.
#            Additionally, because the error bars are Master estimates,
#            they do not capture the asymmetry and non-Gaussianity 
#            of the likelihood for low multipole moments l.
# Column 4 = portion of column 3 error attributed to measurement errors,
#            in '2SN + NN' form, units = uK^2.
# Column 5 = portion of column 3 error attributed to cosmic variance, 
#            assuming the best-fit LCDM model.
#
    2        0.155922        0.041862        0.041862        0.000002
    3       -0.105879        0.053226        0.053226        0.000003
    4       -0.191129        0.063881        0.063881        0.000004
    5       -0.091191        0.074690        0.074690        0.000006
    6        0.278569        0.085976        0.085976        0.000007
    7       -0.036260        0.097733        0.097733        0.000009
    8        0.047437        0.109942        0.109942        0.000011
    9       -0.501981        0.122541        0.122541        0.000012
   10        0.076569        0.135525        0.135525        0.000014
   11       -0.030262        0.148870        0.148870        0.000016
   12        0.020032        0.162570        0.162570        0.000018
   13        0.740477        0.176631        0.176631        0.000020
   14       -0.095988        0.191062        0.191062        0.000022
   15        0.175303        0.205841        0.205841        0.000024
   16        0.246208        0.220981        0.220981        0.000026
   17       -0.019979        0.236461        0.236461        0.000028
   18       -0.084575        0.252287        0.252287        0.000030
   19       -0.475602        0.268455        0.268455        0.000032
   20        0.333952        0.284959        0.284959        0.000034
   21       -0.055131        0.301805        0.301805        0.000036
   22       -0.036985        0.318989        0.318989        0.000038
   23        0.080195        0.336498        0.336498        0.000040
   24       -0.248818        0.354342        0.354342        0.000042
   25       -0.211523        0.372515        0.372515        0.000044
   26        0.340123        0.391015        0.391015        0.000046
   27        0.330474        0.409850        0.409850        0.000048
   28       -0.014497        0.428999        0.428999        0.000050
   29        0.018319        0.448475        0.448475        0.000052
   30       -0.425911        0.468288        0.468288        0.000054
   31        0.777789        0.488416        0.488416        0.000056
   32        0.173831        0.508865        0.508865        0.000058
   33        0.981096        0.529656        0.529656        0.000061
   34       -0.022560        0.550751        0.550751        0.000063
   35        1.134837        0.572182        0.572182        0.000065
   36        0.419078        0.593940        0.593940        0.000067
   37       -0.784401        0.616012        0.616012        0.000070
   38        0.025297        0.638421        0.638421        0.000072
   39        0.157148        0.661158        0.661158        0.000075
   40       -0.597566        0.684211        0.684211        0.000078
   41        0.917898        0.707592        0.707592        0.000081
   42       -0.367490        0.731306        0.731306        0.000084
   43        1.086889        0.755372        0.755372        0.000087
   44        0.620271        0.779735        0.779735        0.000090
   45       -0.301668        0.804451        0.804451        0.000094
   46       -1.483192        0.829496        0.829496        0.000098
   47        0.897298        0.854872        0.854872        0.000101
   48        0.443859        0.880582        0.880582        0.000105
   49       -0.129184        0.906645        0.906645        0.000109
   50        0.094862        0.933044        0.933044        0.000114
   51       -0.412394        0.959780        0.959780        0.000118
   52        0.598472        0.986848        0.986848        0.000123
   53       -0.497812        1.014288        1.014288        0.000128
   54       -2.163269        1.042056        1.042056        0.000133
   55       -0.321185        1.070175        1.070175        0.000138
   56       -1.155522        1.098644        1.098644        0.000143
   57        1.312767        1.127478        1.127478        0.000149
   58       -0.422282        1.156657        1.156657        0.000154
   59        1.172571        1.186204        1.186204        0.000160
   60       -0.132507        1.216092        1.216092        0.000166
   61       -1.426735        1.246349        1.246349        0.000172
   62       -1.565634        1.276982        1.276982        0.000178
   63        0.589771        1.307973        1.307973        0.000184
   64        0.980074        1.339329        1.339329        0.000190
   65        5.074083        1.371055        1.371055        0.000196
   66       -1.974706        1.403180        1.403180        0.000202
   67       -1.053278        1.435668        1.435668        0.000208
   68       -1.229815        1.468525        1.468525        0.000215
   69        1.354237        1.501797        1.501797        0.000221
   70        0.429777        1.535444        1.535444        0.000227
   71       -0.981039        1.569459        1.569459        0.000233
   72       -1.043195        1.603897        1.603897        0.000239
   73       -1.848805        1.638703        1.638703        0.000245
   74        1.311641        1.673935        1.673935        0.000251
   75        0.170329        1.709542        1.709542        0.000257
   76       -0.463518        1.745576        1.745576        0.000263
   77       -1.648492        1.782021        1.782021        0.000269
   78        1.093167        1.818869        1.818869        0.000274
   79       -1.300403        1.856140        1.856140        0.000279
   80       -0.006093        1.893823        1.893823        0.000285
   81        1.943754        1.931939        1.931939        0.000290
   82       -0.835638        1.970486        1.970486        0.000295
   83       -0.205896        2.009439        2.009439        0.000300
   84       -1.368200        2.048859        2.048859        0.000305
   85       -1.474670        2.088692        2.088692        0.000309
   86        2.964985        2.128993        2.128993        0.000314
   87        0.899723        2.169738        2.169738        0.000318
   88       -2.668974        2.210918        2.210918        0.000323
   89        3.031759        2.252542        2.252542        0.000327
   90        5.460423        2.294655        2.294655        0.000331
   91       -2.825850        2.337211        2.337211        0.000335
   92       -0.156862        2.380229        2.380229        0.000339
   93        5.909275        2.423746        2.423746        0.000343
   94        2.381727        2.467730        2.467730        0.000347
   95        0.168468        2.512173        2.512173        0.000351
   96       -4.197264        2.557116        2.557116        0.000355
   97       -1.542132        2.602528        2.602528        0.000359
   98       -0.339334        2.648467        2.648467        0.000363
   99        2.299535        2.694884        2.694884        0.000367
  100       -3.019679        2.741787        2.741787        0.000371
  101        3.613951        2.789200        2.789200        0.000375
  102       -1.392009        2.837149        2.837149        0.000379
  103       -0.248643        2.885583        2.885583        0.000383
  104        2.129620        2.934562        2.934562        0.000388
  105        5.132428        2.984041        2.984041        0.000392
  106       -5.154212        3.034056        3.034056        0.000397
  107       -1.179835        3.084608        3.084608        0.000402
  108        4.148008        3.135694        3.135694        0.000407
  109        1.103006        3.187312        3.187312        0.000412
  110       -1.350690        3.239504        3.239504        0.000418
  111        2.505965        3.292203        3.292203        0.000423
  112       -3.424508        3.345493        3.345493        0.000429
  113        2.892641        3.399334        3.399334        0.000435
  114       -4.854176        3.453718        3.453718        0.000441
  115       -0.290228        3.508682        3.508682        0.000448
  116       -1.540026        3.564273        3.564273        0.000455
  117        0.198817        3.620374        3.620374        0.000461
  118        0.570398        3.677067        3.677067        0.000469
  119        3.262136        3.734356        3.734356        0.000476
  120        6.733366        3.792239        3.792239        0.000483
  121        4.059455        3.850730        3.850730        0.000491
  122        1.678550        3.909830        3.909830        0.000499
  123       -3.767325        3.969537        3.969537        0.000507
  124        3.470800        4.029813        4.029813        0.000515
  125        0.249734        4.090752        4.090752        0.000524
  126        2.775048        4.152315        4.152315        0.000532
  127        4.489465        4.214460        4.214460        0.000541
  128        4.249151        4.277291        4.277291        0.000549
  129        4.498921        4.340724        4.340723        0.000558
  130       10.256960        4.404784        4.404784        0.000567
  131       -2.478390        4.469510        4.469510        0.000575
  132       -5.842353        4.534904        4.534904        0.000584
  133       10.842260        4.600988        4.600988        0.000593
  134       -4.163456        4.667731        4.667731        0.000602
  135       -2.926987        4.735080        4.735080        0.000611
  136       -3.817026        4.803187        4.803187        0.000620
  137       -3.193482        4.871822        4.871822        0.000628
  138        1.227992        4.941198        4.941198        0.000637
  139       -3.361586        5.011378        5.011378        0.000646
  140        0.706703        5.082224        5.082224        0.000654
  141        8.633554        5.153706        5.153706        0.000663
  142        2.401536        5.226025        5.226025        0.000671
  143       -5.540528        5.298971        5.298971        0.000679
  144      -11.902130        5.372639        5.372639        0.000687
  145       -6.943676        5.447066        5.447066        0.000695
  146       -5.493771        5.522275        5.522275        0.000703
  147       -5.738375        5.598112        5.598112        0.000711
  148        9.148603        5.674823        5.674823        0.000719
  149       -2.469518        5.752152        5.752152        0.000726
  150       -9.032941        5.830356        5.830356        0.000733
  151       -6.532392        5.909359        5.909359        0.000741
  152       -9.485885        5.988981        5.988981        0.000748
  153       -2.606855        6.069558        6.069558        0.000755
  154       -3.844818        6.150923        6.150923        0.000762
  155       -1.420893        6.233026        6.233026        0.000769
  156        6.868845        6.315921        6.315921        0.000776
  157        3.030245        6.399559        6.399559        0.000783
  158       13.532070        6.484244        6.484244        0.000790
  159       -2.418087        6.569630        6.569630        0.000797
  160       -8.384608        6.656010        6.656009        0.000804
  161       -2.718027        6.743046        6.743046        0.000811
  162       -6.993360        6.831079        6.831079        0.000818
  163       -3.805922        6.919776        6.919776        0.000825
  164       -7.422606        7.009580        7.009580        0.000832
  165       -2.476067        7.100092        7.100092        0.000839
  166        9.226867        7.191636        7.191636        0.000847
  167        3.275857        7.284132        7.284132        0.000854
  168       -9.303337        7.377242        7.377242        0.000862
  169        2.546625        7.471491        7.471491        0.000870
  170        0.068811        7.566583        7.566583        0.000878
  171       -2.308110        7.662874        7.662874        0.000886
  172        3.504458        7.759817        7.759817        0.000894
  173      -17.563830        7.857780        7.857780        0.000903
  174       -8.007296        7.956843        7.956843        0.000912
  175        1.811040        8.056794        8.056794        0.000921
  176       13.626210        8.157751        8.157751        0.000930
  177       -6.592300        8.259579        8.259579        0.000939
  178        3.217184        8.362533        8.362533        0.000949
  179       -4.997737        8.466574        8.466573        0.000959
  180       -0.420664        8.571369        8.571369        0.000969
  181       -7.497400        8.677418        8.677418        0.000979
  182        1.814887        8.784560        8.784560        0.000990
  183       -3.134606        8.892592        8.892592        0.001000
  184        0.553766        9.001884        9.001884        0.001011
  185       -8.703792        9.112193        9.112193        0.001022
  186        0.427092        9.223476        9.223476        0.001034
  187       14.223600        9.335991        9.335991        0.001045
  188       12.742490        9.449482        9.449482        0.001057
  189       10.283530        9.564236        9.564236        0.001068
  190       -3.786646        9.679927        9.679927        0.001080
  191      -21.371940        9.796900        9.796900        0.001092
  192        9.768892        9.915038        9.915038        0.001104
  193       -7.149341       10.034203       10.034203        0.001116
  194        5.277883       10.154644       10.154644        0.001128
  195        2.144889       10.276290       10.276290        0.001140
  196       -4.784962       10.399044       10.399044        0.001152
  197       -9.544812       10.523044       10.523044        0.001164
  198        5.019930       10.648300       10.648300        0.001176
  199      -16.626730       10.774695       10.774694        0.001188
  200        1.721494       10.902371       10.902371        0.001200
  201       31.960990       11.031153       11.031153        0.001211
  202        1.114591       11.161429       11.161429        0.001223
  203       -2.578047       11.292819       11.292819        0.001235
  204       20.233330       11.425474       11.425473        0.001246
  205        6.579599       11.559450       11.559450        0.001257
  206       16.715970       11.694839       11.694839        0.001268
  207        3.984308       11.831389       11.831389        0.001279
  208      -11.073370       11.969212       11.969212        0.001290
  209        2.174073       12.108432       12.108432        0.001301
  210      -28.212710       12.249293       12.249293        0.001311
  211        8.067119       12.391131       12.391131        0.001322
  212        3.547476       12.534428       12.534428        0.001332
  213        9.088276       12.679007       12.679007        0.001342
  214       15.127560       12.825290       12.825290        0.001352
  215       19.120150       12.972661       12.972661        0.001361
  216        2.778392       13.121667       13.121667        0.001371
  217       -5.422636       13.271810       13.271810        0.001380
  218      -11.764840       13.423564       13.423564        0.001390
  219       -2.196393       13.577019       13.577019        0.001399
  220       -2.924856       13.731579       13.731579        0.001408
  221       -5.898608       13.887772       13.887772        0.001417
  222      -22.402430       14.045363       14.045363        0.001426
  223       -4.978945       14.204475       14.204475        0.001435
  224       -0.770741       14.365210       14.365210        0.001444
  225        1.985416       14.527261       14.527261        0.001453
  226       11.643400       14.691008       14.691008        0.001462
  227      -10.681440       14.856368       14.856368        0.001471
  228       -7.812218       15.023234       15.023234        0.001480
  229      -18.310830       15.191483       15.191482        0.001489
  230       17.258210       15.361522       15.361521        0.001498
  231        2.567383       15.533189       15.533189        0.001507
  232      -16.514370       15.706261       15.706261        0.001516
  233        7.174556       15.881275       15.881275        0.001526
  234        6.529793       16.057687       16.057687        0.001535
  235      -18.927440       16.235844       16.235844        0.001545
  236        3.222205       16.415647       16.415647        0.001555
  237       22.662780       16.597264       16.597264        0.001564
  238       -4.759306       16.780496       16.780496        0.001574
  239       20.453430       16.965431       16.965431        0.001585
  240        5.707618       17.152250       17.152250        0.001595
  241       16.406630       17.340587       17.340587        0.001605
  242      -15.223520       17.530832       17.530832        0.001616
  243      -28.327370       17.722866       17.722866        0.001627
  244      -27.359020       17.916678       17.916678        0.001637
  245      -17.414780       18.112311       18.112311        0.001648
  246      -26.303200       18.309824       18.309824        0.001660
  247       16.245370       18.509105       18.509105        0.001671
  248        7.911917       18.710301       18.710300        0.001682
  249       30.411340       18.913460       18.913460        0.001693
  250      -21.369630       19.118411       19.118411        0.001705
  251      -13.995040       19.325297       19.325297        0.001716
  252      -23.871930       19.534299       19.534299        0.001728
  253        8.155967       19.745029       19.745028        0.001739
  254      -24.194120       19.957739       19.957739        0.001751
  255       -6.996488       20.172540       20.172540        0.001763
  256       15.482290       20.389361       20.389361        0.001774
  257       26.166020       20.608132       20.608132        0.001786
  258       -5.771894       20.829007       20.829007        0.001797
  259        3.653305       21.052060       21.052060        0.001808
  260      -13.316600       21.277076       21.277076        0.001819
  261      -10.838600       21.504364       21.504364        0.001830
  262       16.891750       21.733660       21.733660        0.001841
  263       24.953310       21.965188       21.965188        0.001852
  264       -6.487304       22.198837       22.198837        0.001862
  265       -7.931425       22.434619       22.434619        0.001873
  266       -3.116160       22.672683       22.672683        0.001883
  267      -29.997580       22.913035       22.913035        0.001893
  268      -29.640030       23.155589       23.155589        0.001902
  269       -6.709841       23.400500       23.400500        0.001912
  270      -24.620390       23.647718       23.647718        0.001921
  271      -61.042870       23.897097       23.897097        0.001930
  272      -40.721570       24.148918       24.148918        0.001939
  273        6.063338       24.403076       24.403076        0.001947
  274      -17.477980       24.659653       24.659653        0.001955
  275       21.673460       24.918870       24.918870        0.001963
  276       11.491310       25.180164       25.180164        0.001971
  277      -13.396820       25.444162       25.444162        0.001979
  278      -13.977610       25.710692       25.710692        0.001986
  279        6.609657       25.979599       25.979599        0.001993
  280      -10.762360       26.251037       26.251037        0.002000
  281      -50.093520       26.525081       26.525081        0.002007
  282       -5.555510       26.801662       26.801662        0.002013
  283       24.190960       27.080830       27.080830        0.002019
  284        3.593178       27.362698       27.362698        0.002026
  285      -43.660080       27.647247       27.647247        0.002032
  286       49.735400       27.934484       27.934484        0.002038
  287      -15.381700       28.224256       28.224256        0.002044
  288       16.203130       28.516802       28.516802        0.002049
  289       21.710760       28.812216       28.812216        0.002055
  290       47.572060       29.110265       29.110265        0.002061
  291       -7.426369       29.411284       29.411284        0.002066
  292       24.269590       29.714891       29.714891        0.002072
  293      -47.112890       30.021548       30.021548        0.002078
  294       49.201000       30.331191       30.331191        0.002084
  295       35.896810       30.643388       30.643388        0.002089
  296       10.795250       30.958825       30.958825        0.002095
  297       36.647310       31.276960       31.276960        0.002101
  298       -1.638424       31.598260       31.598260        0.002107
  299       -6.429958       31.922479       31.922479        0.002113
  300      -50.615590       32.249531       32.249531        0.002119
  301       11.192460       32.579926       32.579926        0.002125
  302      -17.524060       32.913163       32.913163        0.002131
  303       -2.931378       33.249514       33.249514        0.002138
  304      -65.196210       33.589010       33.589010        0.002144
  305       35.362610       33.932071       33.932071        0.002151
  306       32.942390       34.277744       34.277744        0.002157
  307      -47.181620       34.626820       34.626820        0.002164
  308       60.750510       34.979088       34.979088        0.002171
  309      -27.950230       35.334612       35.334612        0.002178
  310      -52.837880       35.693432       35.693432        0.002185
  311      -67.190400       36.055780       36.055780        0.002192
  312      -31.541780       36.421124       36.421124        0.002199
  313       21.782330       36.789958       36.789958        0.002206
  314       30.918160       37.162191       37.162191        0.002213
  315       69.252000       37.537390       37.537390        0.002220
  316      -62.939750       37.916800       37.916800        0.002228
  317       36.146370       38.299040       38.299039        0.002235
  318       52.303050       38.685031       38.685030        0.002242
  319        3.700684       39.074294       39.074294        0.002249
  320      -15.435730       39.467443       39.467443        0.002256
  321       15.944870       39.863701       39.863701        0.002263
  322       26.861030       40.263801       40.263801        0.002270
  323       -5.702708       40.667708       40.667708        0.002276
  324      -91.848430       41.074791       41.074791        0.002283
  325       62.790830       41.485978       41.485978        0.002289
  326       30.031610       41.900762       41.900762        0.002295
  327       24.916740       42.318742       42.318742        0.002301
  328      -85.868190       42.740257       42.740257        0.002307
  329       81.561980       43.166458       43.166458        0.002312
  330       37.667450       43.596052       43.596052        0.002318
  331     -103.726000       44.029817       44.029817        0.002323
  332       74.946060       44.466525       44.466525        0.002328
  333      134.980300       44.908129       44.908128        0.002333
  334       18.785030       45.353276       45.353276        0.002337
  335      -34.775470       45.802467       45.802466        0.002341
  336      -86.674110       46.255096       46.255096        0.002345
  337       40.237470       46.711891       46.711891        0.002349
  338      -40.603160       47.172187       47.172187        0.002353
  339      -13.519850       47.638101       47.638101        0.002356
  340      -30.326090       48.107412       48.107412        0.002359
  341      -72.978360       48.579749       48.579749        0.002362
  342       93.888280       49.056950       49.056950        0.002365
  343       -9.612142       49.539185       49.539185        0.002367
  344      -45.348680       50.024790       50.024790        0.002370
  345      -51.707100       50.514288       50.514288        0.002372
  346       -0.980175       51.008031       51.008031        0.002375
  347      -30.611930       51.506515       51.506515        0.002377
  348       47.472130       52.009791       52.009791        0.002379
  349       19.633920       52.516419       52.516419        0.002381
  350      -33.062110       53.027841       53.027841        0.002383
  351      -73.852920       53.542757       53.542757        0.002385
  352        9.096491       54.063576       54.063576        0.002386
  353       -2.954818       54.588735       54.588735        0.002388
  354      -61.653000       55.117287       55.117287        0.002390
  355      -38.785270       55.652067       55.652067        0.002392
  356       -8.997709       56.189614       56.189614        0.002394
  357       67.376790       56.732413       56.732413        0.002397
  358       49.429040       57.280447       57.280446        0.002399
  359      -27.946680       57.832786       57.832786        0.002401
  360      -39.121290       58.389509       58.389509        0.002404
  361       25.584240       58.952150       58.952150        0.002406
  362       13.117520       59.517932       59.517932        0.002409
  363       19.586210       60.088673       60.088673        0.002412
  364      -66.779270       60.665795       60.665794        0.002415
  365       24.619790       61.246472       61.246472        0.002419
  366       59.113940       61.832258       61.832258        0.002422
  367       15.153420       62.422063       62.422063        0.002426
  368       46.258600       63.017780       63.017780        0.002430
  369       60.470970       63.618798       63.618798        0.002434
  370      -37.328270       64.225008       64.225008        0.002438
  371      -13.184520       64.837235       64.837235        0.002442
  372       11.038700       65.451592       65.451592        0.002447
  373      104.268100       66.074281       66.074281        0.002451
  374       24.682600       66.700231       66.700231        0.002456
  375       74.423740       67.332904       67.332904        0.002461
  376      -69.273570       67.969120       67.969120        0.002466
  377      -76.396250       68.610841       68.610841        0.002471
  378      145.099000       69.258867       69.258867        0.002476
  379      -24.602020       69.913122       69.913122        0.002481
  380       -8.072053       70.570979       70.570979        0.002487
  381       30.415930       71.235431       71.235431        0.002492
  382       73.518340       71.906373       71.906373        0.002497
  383     -112.457900       72.583115       72.583115        0.002503
  384       43.764030       73.263537       73.263537        0.002508
  385      -16.715540       73.949837       73.949837        0.002514
  386       30.579650       74.641329       74.641329        0.002519
  387     -125.480500       75.341125       75.341125        0.002524
  388      -39.576780       76.044799       76.044799        0.002529
  389       55.789280       76.754166       76.754166        0.002534
  390      116.933900       77.471191       77.471191        0.002539
  391       11.956720       78.192623       78.192622        0.002544
  392       66.519970       78.919131       78.919131        0.002549
  393      -23.743090       79.653418       79.653418        0.002553
  394       17.861480       80.393870       80.393870        0.002558
  395       68.738550       81.141540       81.141540        0.002562
  396      -45.145130       81.892491       81.892491        0.002566
  397       17.283460       82.650273       82.650273        0.002570
  398       23.282650       83.415215       83.415215        0.002574
  399       26.373580       84.187189       84.187189        0.002578
  400      127.126000       84.965404       84.965404        0.002582
  401      -60.073090       85.747944       85.747944        0.002585
  402      -45.060080       86.538447       86.538447        0.002588
  403       60.845860       87.335206       87.335206        0.002592
  404      148.908600       88.138867       88.138867        0.002595
  405     -126.299900       88.949405       88.949405        0.002598
  406     -175.565100       89.764498       89.764498        0.002601
  407      185.189400       90.589284       90.589284        0.002604
  408      -27.201740       91.419799       91.419799        0.002607
  409      -55.061720       92.255931       92.255931        0.002610
  410      -98.822040       93.099478       93.099478        0.002612
  411       -1.344675       93.950905       93.950905        0.002615
  412      -31.020650       94.809084       94.809084        0.002618
  413       20.875920       95.674647       95.674647        0.002621
  414      330.229100       96.545716       96.545716        0.002624
  415       71.171960       97.426442       97.426442        0.002627
  416      -21.137790       98.311408       98.311408        0.002630
  417      119.173200       99.206018       99.206018        0.002634
  418       30.918650      100.107259      100.107259        0.002637
  419       48.398870      101.015048      101.015048        0.002641
  420     -147.682900      101.930656      101.930656        0.002644
  421      -96.446720      102.854052      102.854052        0.002648
  422      136.010500      103.784439      103.784439        0.002652
  423      -95.789440      104.722033      104.722033        0.002657
  424       19.303470      105.668888      105.668888        0.002661
  425      -69.319370      106.622426      106.622426        0.002666
  426      101.173000      107.583993      107.583993        0.002671
  427       64.510250      108.553285      108.553285        0.002676
  428      -80.407230      109.531161      109.531161        0.002682
  429     -105.442100      110.516029      110.516029        0.002687
  430     -176.740100      111.510200      111.510200        0.002693
  431       49.290390      112.511756      112.511756        0.002699
  432     -121.223300      113.520788      113.520788        0.002706
  433      -51.030160      114.537870      114.537870        0.002712
  434      166.646200      115.564030      115.564030        0.002719
  435     -133.169700      116.598132      116.598132        0.002726
  436     -172.265200      117.640019      117.640019        0.002733
  437      128.416700      118.692946      118.692946        0.002741
  438       67.843390      119.752326      119.752326        0.002748
  439      124.479700      120.818979      120.818979        0.002756
  440      130.405100      121.897572      121.897572        0.002764
  441      118.676000      122.983417      122.983417        0.002772
  442        9.013927      124.078632      124.078632        0.002780
  443       56.402570      125.182174      125.182174        0.002788
  444      -90.402680      126.294316      126.294316        0.002796
  445      184.037800      127.414131      127.414131        0.002804
  446        3.737136      128.543241      128.543241        0.002813
  447      -28.915540      129.684549      129.684549        0.002821
  448     -102.009900      130.834117      130.834117        0.002829
  449      -69.621600      131.992090      131.992090        0.002837
  450      -23.790780      133.158708      133.158708        0.002846
  451       58.748460      134.334718      134.334718        0.002854
  452      166.088400      135.522643      135.522643        0.002862
  453      170.232600      136.716547      136.716546        0.002870
  454     -207.531400      137.922326      137.922326        0.002877
  455     -143.841700      139.138834      139.138834        0.002885
  456       90.263490      140.363344      140.363344        0.002893
  457     -245.486300      141.598052      141.598052        0.002900
  458       38.791480      142.843379      142.843379        0.002908
  459       61.324360      144.099886      144.099886        0.002915
  460       49.664090      145.366698      145.366698        0.002922
  461      -23.161850      146.641592      146.641592        0.002929
  462      -98.816000      147.926545      147.926545        0.002935
  463       77.049530      149.223953      149.223953        0.002942
  464      163.102000      150.531263      150.531263        0.002948
  465     -136.918100      151.846567      151.846567        0.002955
  466      372.507300      153.175524      153.175524        0.002961
  467      -90.328450      154.514427      154.514427        0.002967
  468     -190.152000      155.864310      155.864310        0.002973
  469      102.549400      157.225472      157.225472        0.002979
  470     -179.492600      158.596035      158.596035        0.002985
  471      -48.370560      159.978819      159.978819        0.002991
  472       83.218640      161.371803      161.371803        0.002997
  473     -159.572600      162.777571      162.777571        0.003002
  474      -69.181810      164.193641      164.193641        0.003008
  475     -132.136200      165.622196      165.622196        0.003014
  476      -53.746060      167.061005      167.061005        0.003019
  477        9.132143      168.513142      168.513142        0.003025
  478      165.686800      169.975956      169.975956        0.003031
  479      268.274900      171.450225      171.450225        0.003037
  480     -287.644400      172.936758      172.936758        0.003043
  481      108.008400      174.435584      174.435584        0.003049
  482        2.937011      175.944263      175.944263        0.003055
  483      240.492600      177.467428      177.467428        0.003062
  484      151.157600      179.000957      179.000956        0.003068
  485     -108.127700      180.548028      180.548028        0.003075
  486     -149.787400      182.107712      182.107712        0.003081
  487      228.305000      183.679517      183.679517        0.003088
  488     -348.250400      185.264454      185.264454        0.003096
  489      124.731700      186.859186      186.859186        0.003103
  490     -222.608600      188.468927      188.468927        0.003110
  491      173.834800      190.091814      190.091814        0.003118
  492     -178.887300      191.725960      191.725960        0.003126
  493     -324.837500      193.373872      193.373872        0.003134
  494      -60.069540      195.035455      195.035455        0.003142
  495     -144.943700      196.708088      196.708088        0.003150
  496      -72.314090      198.394467      198.394467        0.003159
  497       63.508340      200.095956      200.095956        0.003167
  498     -308.999000      201.808458      201.808458        0.003176
  499       67.869170      203.534802      203.534802        0.003185
  500       59.692600      205.275245      205.275245        0.003194
  501     -217.298100      207.029452      207.029452        0.003203
  502     -254.690900      208.795895      208.795895        0.003212
  503       88.343150      210.576740      210.576740        0.003221
  504       63.572200      212.371007      212.371007        0.003230
  505      278.411000      214.180553      214.180553        0.003240
  506      154.100000      216.001415      216.001414        0.003249
  507      520.702600      217.839618      217.839618        0.003258
  508      -25.578800      219.688371      219.688371        0.003267
  509     -467.875600      221.550376      221.550376        0.003276
  510     -231.853100      223.429160      223.429160        0.003285
  511        9.160388      225.322087      225.322086        0.003294
  512     -368.682200      227.226951      227.226951        0.003303
  513      -99.217830      229.146446      229.146446        0.003311
  514      119.096600      231.080245      231.080245        0.003320
  515       79.889210      233.029389      233.029389        0.003328
  516     -156.686600      234.992708      234.992708        0.003336
  517     -226.548700      236.972111      236.972111        0.003344
  518     -126.114400      238.961839      238.961839        0.003351
  519      -99.124300      240.969027      240.969027        0.003359
  520      261.091500      242.989164      242.989164        0.003366
  521     -149.822100      245.026468      245.026468        0.003373
  522      128.976500      247.075756      247.075756        0.003380
  523     -332.636000      249.139809      249.139809        0.003386
  524      -62.001130      251.222200      251.222200        0.003393
  525       35.117460      253.316480      253.316480        0.003399
  526      162.860400      255.424503      255.424503        0.003404
  527      102.159800      257.549075      257.549074        0.003410
  528       31.663110      259.690438      259.690438        0.003415
  529      -10.110450      261.844982      261.844982        0.003421
  530       26.138090      264.013391      264.013391        0.003425
  531     -201.432800      266.200010      266.200010        0.003430
  532     -513.878100      268.399550      268.399550        0.003435
  533     -717.450300      270.615858      270.615858        0.003439
  534      -72.671550      272.844484      272.844484        0.003444
  535      -85.009850      275.092299      275.092299        0.003448
  536      368.193100      277.354567      277.354567        0.003452
  537      -94.550590      279.632078      279.632078        0.003456
  538      424.529500      281.925308      281.925308        0.003460
  539     -305.746300      284.239043      284.239043        0.003463
  540      792.934000      286.558676      286.558676        0.003467
  541     -674.596300      288.901828      288.901828        0.003471
  542       14.437580      291.259789      291.259789        0.003475
  543      -55.114180      293.631673      293.631673        0.003478
  544      528.302600      296.024359      296.024359        0.003482
  545      209.553600      298.430149      298.430149        0.003486
  546     -187.034900      300.853918      300.853918        0.003490
  547       46.921140      303.289842      303.289842        0.003494
  548     -570.143600      305.749955      305.749955        0.003498
  549      234.071200      308.220390      308.220390        0.003502
  550       12.056910      310.708520      310.708520        0.003506
  551       86.345730      313.216717      313.216717        0.003510
  552     -186.793300      315.742154      315.742154        0.003514
  553      576.897500      318.281651      318.281651        0.003519
  554     -429.613800      320.841674      320.841674        0.003523
  555     -121.618700      323.418470      323.418470        0.003528
  556      398.074500      326.010122      326.010122        0.003533
  557      711.668800      328.623403      328.623403        0.003537
  558     -459.313800      331.254579      331.254579        0.003542
  559     -144.299200      333.904048      333.904048        0.003547
  560     -401.228600      336.573504      336.573504        0.003552
  561       14.932790      339.256116      339.256116        0.003557
  562      496.343100      341.961946      341.961946        0.003562
  563      457.295000      344.683994      344.683994        0.003568
  564       44.779000      347.425570      347.425570        0.003573
  565     -132.590700      350.187628      350.187628        0.003578
  566      144.396200      352.970299      352.970299        0.003583
  567     -264.975500      355.769601      355.769601        0.003588
  568     -359.477800      358.588676      358.588676        0.003593
  569     -526.603400      361.429896      361.429896        0.003598
  570     -113.632900      364.289643      364.289643        0.003603
  571     -289.051200      367.172111      367.172111        0.003607
  572       81.051150      370.072821      370.072821        0.003612
  573      378.537200      372.994345      372.994345        0.003616
  574      -87.585830      375.938276      375.938276        0.003621
  575     -441.109800      378.903656      378.903656        0.003625
  576     -552.968600      381.886389      381.886389        0.003629
  577       60.287480      384.897260      384.897260        0.003632
  578     -417.020200      387.925981      387.925981        0.003636
  579     -361.280200      390.977466      390.977466        0.003639
  580     -396.396400      394.050938      394.050938        0.003642
  581     -341.968300      397.140643      397.140643        0.003645
  582     -424.793200      400.263052      400.263052        0.003647
  583     -109.447700      403.398393      403.398393        0.003649
  584      245.108500      406.565194      406.565194        0.003651
  585       92.526910      409.753662      409.753662        0.003653
  586     -208.782200      412.961128      412.961128        0.003654
  587     -322.800800      416.194556      416.194555        0.003655
  588     -183.578100      419.453796      419.453796        0.003656
  589      490.776400      422.736062      422.736062        0.003657
  590     -286.881400      426.041979      426.041979        0.003657
  591     -272.694500      429.372963      429.372963        0.003657
  592     -340.389400      432.727147      432.727147        0.003657
  593     -675.714400      436.106778      436.106778        0.003657
  594      -44.101640      439.509955      439.509955        0.003656
  595      688.088900      442.944337      442.944337        0.003656
  596      112.394000      446.396513      446.396513        0.003655
  597     -683.046300      449.880526      449.880526        0.003654
  598     -454.142100      453.385540      453.385540        0.003653
  599      -12.393360      456.917831      456.917831        0.003651
  600       50.807050      460.477963      460.477963        0.003650
  601     -480.721700      464.063189      464.063189        0.003649
  602    -1057.082000      467.676970      467.676970        0.003647
  603     -678.039900      471.316773      471.316773        0.003646
  604      854.120400      474.982684      474.982684        0.003644
  605      -48.292110      478.676262      478.676262        0.003643
  606      673.994200      482.400674      482.400674        0.003641
  607      688.753900      486.147236      486.147236        0.003640
  608      257.330400      489.919691      489.919691        0.003639
  609     -111.594300      493.728298      493.728298        0.003637
  610     -323.140400      497.558407      497.558407        0.003636
  611    -1094.587000      501.420248      501.420248        0.003635
  612     -652.105300      505.307124      505.307124        0.003634
  613      398.334300      509.231016      509.231016        0.003633
  614     -659.954800      513.171530      513.171530        0.003632
  615      621.574800      517.152386      517.152386        0.003632
  616      -73.066350      521.161885      521.161885        0.003631
  617       36.865700      525.192609      525.192609        0.003631
  618      406.727300      529.262268      529.262268        0.003631
  619       32.012490      533.355363      533.355363        0.003631
  620    -1198.597000      537.482776      537.482776        0.003631
  621      804.700300      541.643534      541.643534        0.003631
  622    -1006.682000      545.828317      545.828317        0.003631
  623      253.125600      550.043087      550.043087        0.003631
  624      333.928200      554.293716      554.293716        0.003632
  625      499.767200      558.574286      558.574286        0.003632
  626     -492.517200      562.879551      562.879551        0.003633
  627    -1054.592000      567.225198      567.225198        0.003634
  628     -129.042100      571.600651      571.600651        0.003634
  629       33.349500      576.011504      576.011504        0.003635
  630      882.675500      580.455768      580.455768        0.003636
  631     -186.343600      584.924136      584.924136        0.003636
  632     -340.511900      589.437379      589.437379        0.003637
  633       73.343510      593.979246      593.979246        0.003638
  634     -541.836900      598.544249      598.544249        0.003638
  635     -170.015100      603.155317      603.155317        0.003639
  636     -506.404100      607.796796      607.796796        0.003639
  637      307.202600      612.463156      612.463156        0.003639
  638      252.195400      617.174514      617.174514        0.003639
  639     -117.964500      621.917392      621.917392        0.003640
  640     -683.788900      626.705494      626.705494        0.003639
  641     1480.032000      631.520067      631.520067        0.003639
  642      161.134100      636.363020      636.363020        0.003639
  643     -246.664800      641.254111      641.254111        0.003638
  644     -769.356700      646.171892      646.171892        0.003637
  645      442.517500      651.121297      651.121297        0.003636
  646     1100.802000      656.119979      656.119979        0.003635
  647    -1293.223000      661.144701      661.144701        0.003633
  648     1079.309000      666.218416      666.218416        0.003632
  649      864.605200      671.326272      671.326272        0.003630
  650       66.707080      676.460343      676.460343        0.003628
  651     -615.797700      681.643905      681.643905        0.003626
  652     -235.177800      686.857682      686.857682        0.003623
  653     -582.757900      692.119911      692.119911        0.003621
  654     -474.245000      697.419955      697.419955        0.003618
  655      -53.760570      702.764775      702.764775        0.003616
  656      904.496700      708.125242      708.125242        0.003613
  657      519.312400      713.556623      713.556623        0.003610
  658     -820.969200      718.992179      718.992179        0.003607
  659     -174.366200      724.512378      724.512378        0.003604
  660     -841.964000      730.022467      730.022467        0.003600
  661    -1658.542000      735.628043      735.628043        0.003597
  662      385.800300      741.212963      741.212963        0.003594
  663      -46.638070      746.892601      746.892601        0.003591
  664      647.722300      752.604014      752.604014        0.003587
  665      143.273400      758.339336      758.339336        0.003584
  666     -729.637900      764.141742      764.141742        0.003581
  667     1105.363000      769.971471      769.971471        0.003578
  668    -1147.477000      775.843652      775.843652        0.003575
  669    -1144.298000      781.763204      781.763204        0.003572
  670      173.286700      787.710398      787.710398        0.003570
  671     -850.506200      793.703688      793.703688        0.003567
  672     1576.274000      799.764318      799.764318        0.003565
  673     -822.008600      805.867280      805.867280        0.003563
  674     -875.000500      811.997124      811.997124        0.003561
  675     -791.052700      818.209503      818.209503        0.003559
  676      970.291900      824.396510      824.396510        0.003558
  677     -121.264600      830.685262      830.685262        0.003556
  678    -1680.352000      837.016431      837.016431        0.003555
  679      863.887800      843.378283      843.378283        0.003554
  680     -901.341700      849.782634      849.782634        0.003554
  681      677.566800      856.256056      856.256056        0.003553
  682     1510.416000      862.736169      862.736169        0.003553
  683     -876.019400      869.317904      869.317904        0.003553
  684      472.852500      875.912335      875.912335        0.003553
  685      426.095900      882.547229      882.547229        0.003554
  686    -1934.312000      889.249031      889.249031        0.003554
  687       11.711860      895.978925      895.978925        0.003555
  688      594.574000      902.768746      902.768746        0.003556
  689    -2096.281000      909.614652      909.614652        0.003557
  690      180.646300      916.479714      916.479714        0.003558
  691     1101.386000      923.431603      923.431603        0.003559
  692       -1.076198      930.405478      930.405478        0.003561
  693      436.795300      937.448025      937.448025        0.003562
  694     1267.430000      944.552908      944.552908        0.003564
  695     -457.256300      951.668782      951.668782        0.003565
  696      773.519000      958.853133      958.853133        0.003567
  697     -325.145100      966.112286      966.112286        0.003569
  698     -513.305900      973.381890      973.381890        0.003570
  699     -281.073400      980.716630      980.716630        0.003572
  700    -1160.699000      988.119496      988.119496        0.003573
  701     -675.739100      995.507080      995.507080        0.003575
  702     -281.325400     1003.019577     1003.019577        0.003576
  703    -1709.999000     1010.573463     1010.573463        0.003577
  704      444.201300     1018.134506     1018.134506        0.003578
  705      595.715600     1025.800738     1025.800738        0.003579
  706    -3503.895000     1033.470131     1033.470131        0.003580
  707     -654.526700     1041.220141     1041.220141        0.003581
  708    -1860.937000     1049.024397     1049.024397        0.003582
  709       46.835720     1056.847811     1056.847811        0.003582
  710     -804.555200     1064.772052     1064.772052        0.003583
  711      445.643500     1072.726404     1072.726404        0.003583
  712      -95.656670     1080.725256     1080.725256        0.003583
  713    -2871.899000     1088.788751     1088.788751        0.003583
  714     1266.444000     1096.893684     1096.893684        0.003583
  715     -507.237200     1105.074065     1105.074065        0.003583
  716      932.642800     1113.287057     1113.287057        0.003583
  717      597.302700     1121.568858     1121.568858        0.003582
  718     1043.994000     1129.888454     1129.888454        0.003582
  719     -319.676800     1138.252526     1138.252526        0.003581
  720     1487.150000     1146.711520     1146.711520        0.003581
  721     1872.465000     1155.180670     1155.180670        0.003580
  722      155.174600     1163.716646     1163.716646        0.003579
  723       -9.450754     1172.351506     1172.351506        0.003579
  724     -830.191600     1180.993543     1180.993543        0.003578
  725    -1240.470000     1189.706771     1189.706771        0.003578
  726     1050.113000     1198.487455     1198.487455        0.003577
  727    -1264.904000     1207.275115     1207.275115        0.003576
  728      217.460600     1216.163550     1216.163550        0.003576
  729     1838.231000     1225.089265     1225.089265        0.003576
  730      204.009300     1234.112695     1234.112695        0.003576
  731      646.163200     1243.172503     1243.172503        0.003576
  732      697.066300     1252.270391     1252.270391        0.003576
  733     -280.916000     1261.438071     1261.438071        0.003576
  734     -284.873600     1270.674214     1270.674214        0.003577
  735    -2141.738000     1279.946891     1279.946891        0.003577
  736    -1567.756000     1289.285890     1289.285890        0.003578
  737      126.397300     1298.723134     1298.723134        0.003580
  738    -2211.060000     1308.167950     1308.167950        0.003581
  739     1562.425000     1317.681167     1317.681167        0.003583
  740    -1437.073000     1327.258992     1327.258992        0.003584
  741    -2942.892000     1336.938342     1336.938342        0.003586
  742      129.680200     1346.618698     1346.618698        0.003589
  743     -348.329200     1356.370577     1356.370577        0.003591
  744     -126.235400     1366.248135     1366.248135        0.003594
  745     -855.239100     1376.104267     1376.104267        0.003597
  746     -134.657400     1386.054389     1386.054389        0.003600
  747      267.097900     1396.103614     1396.103614        0.003603
  748     2695.220000     1406.219058     1406.219058        0.003607
  749     1040.987000     1416.340196     1416.340196        0.003611
  750      864.223900     1426.557552     1426.557552        0.003615
  751      706.274500     1436.842825     1436.842825        0.003619
  752      156.326300     1447.192965     1447.192965        0.003623
  753    -3483.645000     1457.578815     1457.578815        0.003627
  754      287.465900     1468.092496     1468.092496        0.003631
  755      699.652800     1478.640071     1478.640071        0.003636
  756     -231.328200     1489.254828     1489.254827        0.003640
  757    -2472.859000     1499.935778     1499.935778        0.003645
  758     1548.806000     1510.679596     1510.679596        0.003649
  759      975.285200     1521.523235     1521.523235        0.003654
  760      -57.801600     1532.428038     1532.428038        0.003658
  761     3616.226000     1543.402190     1543.402190        0.003662
  762    -5485.349000     1554.440160     1554.440160        0.003667
  763     -379.598800     1565.570997     1565.570997        0.003671
  764     3518.510000     1576.738683     1576.738683        0.003675
  765      187.436700     1588.000043     1588.000043        0.003679
  766     -713.493400     1599.328096     1599.328096        0.003683
  767     -759.988400     1610.748957     1610.748957        0.003687
  768     -602.512500     1622.235744     1622.235744        0.003690
  769     -486.565600     1633.816965     1633.816965        0.003694
  770      710.715300     1645.431300     1645.431300        0.003697
  771    -2124.584000     1657.169635     1657.169635        0.003700
  772      124.459600     1668.940637     1668.940637        0.003703
  773      240.270500     1680.807709     1680.807709        0.003706
  774     3711.914000     1692.769337     1692.769337        0.003708
  775      811.970700     1704.790882     1704.790882        0.003711
  776     -369.686800     1716.906438     1716.906438        0.003713
  777     2208.585000     1729.116977     1729.116977        0.003715
  778      287.029500     1741.387957     1741.387957        0.003717
  779     -900.197200     1753.753394     1753.753394        0.003718
  780    -3842.834000     1766.212607     1766.212607        0.003720
  781      949.780400     1778.730442     1778.730442        0.003721
  782    -4212.836000     1791.342305     1791.342305        0.003723
  783     -336.943600     1804.047058     1804.047058        0.003724
  784       79.879460     1816.811740     1816.811740        0.003725
  785     -554.053500     1829.696960     1829.696960        0.003726
  786      673.038300     1842.646318     1842.646318        0.003727
  787     1561.492000     1855.682906     1855.682906        0.003728
  788     -782.446000     1868.847256     1868.847256        0.003729
  789    -1473.990000     1882.030831     1882.030831        0.003730
  790    -1605.848000     1895.372739     1895.372739        0.003731
  791    -3304.607000     1908.740620     1908.740620        0.003732
  792     1505.710000     1922.229968     1922.229968        0.003733
  793     1319.470000     1935.838309     1935.838309        0.003734
  794    -1772.244000     1949.501738     1949.501738        0.003735
  795      887.167600     1963.256667     1963.256667        0.003737
  796     -888.496800     1977.102472     1977.102472        0.003738
  797     -599.131700     1991.065528     1991.065528        0.003740
  798     -431.937300     2005.109768     2005.109768        0.003741
  799     2748.785000     2019.216364     2019.216364        0.003743
  800      604.907900     2033.468434     2033.468434        0.003745
  801      347.928300     2047.810178     2047.810178        0.003747
  802    -1587.021000     2062.202323     2062.202323        0.003750
  803      301.954500     2076.711809     2076.711809        0.003752
  804      740.821300     2091.336239     2091.336239        0.003755
  805     -758.011400     2106.048644     2106.048644        0.003757
  806     -950.177700     2120.839082     2120.839082        0.003760
  807     1348.954000     2135.741889     2135.741889        0.003763
  808      157.120200     2150.731140     2150.731140        0.003766
  809     1920.413000     2165.840802     2165.840802        0.003770
  810     3736.077000     2181.057048     2181.057048        0.003773
  811     -975.243300     2196.325086     2196.325086        0.003777
  812     -936.442900     2211.724564     2211.724564        0.003780
  813     -179.063000     2227.213833     2227.213833        0.003784
  814    -1579.912000     2242.819167     2242.819167        0.003788
  815     2164.570000     2258.487530     2258.487530        0.003791
  816     4675.374000     2274.286159     2274.286159        0.003795
  817    -2159.054000     2290.171687     2290.171687        0.003799
  818    -1371.899000     2306.177948     2306.177948        0.003803
  819     3029.321000     2322.262117     2322.262117        0.003807
  820     -331.948100     2338.439361     2338.439361        0.003810
  821      267.890400     2354.736497     2354.736497        0.003814
  822     2160.889000     2371.132473     2371.132473        0.003817
  823    -1630.137000     2387.629624     2387.629624        0.003821
  824    -1423.425000     2404.208744     2404.208744        0.003824
  825     2101.357000     2420.920440     2420.920440        0.003827
  826     3274.311000     2437.738580     2437.738580        0.003830
  827     -208.977000     2454.618778     2454.618778        0.003832
  828    -2849.556000     2471.671139     2471.671139        0.003835
  829      812.604400     2488.760323     2488.760323        0.003837
  830    -4076.547000     2505.976681     2505.976681        0.003839
  831     1537.007000     2523.312057     2523.312057        0.003841
  832      970.234700     2540.732646     2540.732646        0.003843
  833    -2660.566000     2558.235213     2558.235213        0.003844
  834    -1299.800000     2575.881910     2575.881910        0.003845
  835      145.556100     2593.584436     2593.584436        0.003846
  836     1473.973000     2611.461168     2611.461168        0.003846
  837     2782.382000     2629.406768     2629.406768        0.003847
  838    -5041.021000     2647.457799     2647.457799        0.003847
  839    -3386.077000     2665.605692     2665.605692        0.003846
  840     2479.492000     2683.873065     2683.873065        0.003846
  841    -2634.220000     2702.236044     2702.236044        0.003845
  842    -3716.427000     2720.677785     2720.677785        0.003844
  843     2640.387000     2739.281426     2739.281426        0.003843
  844    -3185.409000     2757.939306     2757.939306        0.003842
  845     -612.484400     2776.759392     2776.759392        0.003840
  846    -1714.234000     2795.646971     2795.646971        0.003839
  847    -4920.473000     2814.632079     2814.632079        0.003837
  848     1071.963000     2833.751739     2833.751739        0.003835
  849    -4632.008000     2852.967425     2852.967425        0.003833
  850    -3270.824000     2872.274577     2872.274577        0.003831
  851     -191.811100     2891.718324     2891.718324        0.003829
  852    -1316.314000     2911.277863     2911.277863        0.003827
  853      315.907700     2930.926126     2930.926126        0.003824
  854     1205.118000     2950.660166     2950.660166        0.003822
  855    -2631.350000     2970.535408     2970.535408        0.003820
  856     -759.964500     2990.518853     2990.518853        0.003817
  857     7675.865000     3010.588970     3010.588970        0.003815
  858     -866.970300     3030.814968     3030.814968        0.003813
  859     1820.463000     3051.100900     3051.100900        0.003811
  860     3749.381000     3071.546122     3071.546122        0.003809
  861      873.493200     3092.045633     3092.045633        0.003807
  862     3787.042000     3112.657636     3112.657636        0.003805
  863    -1330.506000     3133.446796     3133.446796        0.003804
  864     2368.119000     3154.290870     3154.290870        0.003802
  865     2510.317000     3175.241743     3175.241743        0.003801
  866    -2282.265000     3196.367371     3196.367371        0.003799
  867     1943.215000     3217.568810     3217.568810        0.003798
  868    -1722.756000     3238.851189     3238.851189        0.003797
  869      589.558000     3260.277423     3260.277423        0.003796
  870    -3618.238000     3281.858935     3281.858935        0.003795
  871    -6068.118000     3303.492609     3303.492609        0.003794
  872      -60.586570     3325.265244     3325.265244        0.003793
  873     3300.542000     3347.122265     3347.122265        0.003793
  874    -1552.962000     3369.168309     3369.168309        0.003792
  875      440.110000     3391.278553     3391.278553        0.003792
  876    -1449.067000     3413.490124     3413.490124        0.003791
  877    -1679.416000     3435.874215     3435.874215        0.003791
  878     -325.024600     3458.339577     3458.339577        0.003790
  879      895.448100     3480.904813     3480.904813        0.003790
  880    -6095.188000     3503.636909     3503.636909        0.003789
  881     1295.757000     3526.502252     3526.502252        0.003789
  882    -2002.251000     3549.426857     3549.426857        0.003788
  883       64.292760     3572.503532     3572.503532        0.003787
  884     5395.902000     3595.729859     3595.729859        0.003787
  885      246.324500     3618.992884     3618.992884        0.003786
  886    -2266.062000     3642.441603     3642.441603        0.003784
  887     1210.230000     3666.018353     3666.018353        0.003783
  888     -300.650000     3689.703794     3689.703794        0.003782
  889     5437.713000     3713.501766     3713.501766        0.003780
  890    -1932.285000     3737.438108     3737.438108        0.003778
  891    -3131.799000     3761.541919     3761.541919        0.003776
  892    -1896.520000     3785.711314     3785.711314        0.003774
  893    -5425.997000     3810.048478     3810.048478        0.003771
  894     -922.486100     3834.464134     3834.464134        0.003769
  895     1230.888000     3859.056220     3859.056220        0.003766
  896     3939.451000     3883.771640     3883.771640        0.003762
  897     -218.830100     3908.608009     3908.608009        0.003759
  898      356.729600     3933.619648     3933.619648        0.003755
  899     5681.168000     3958.707815     3958.707815        0.003751
  900    -1390.224000     3983.914219     3983.914219        0.003747
  901    -1899.194000     4009.309968     4009.309968        0.003742
  902    10205.400000     4034.823759     4034.823759        0.003738
  903     4083.820000     4060.465262     4060.465262        0.003733
  904     3443.400000     4086.237436     4086.237436        0.003728
  905    -1612.937000     4112.181047     4112.181047        0.003722
  906     -128.234400     4138.268498     4138.268498        0.003717
  907     3582.871000     4164.480567     4164.480567        0.003711
  908    -1813.125000     4190.818985     4190.818985        0.003705
  909    -6125.396000     4217.282076     4217.282076        0.003700
  910     1295.440000     4243.930463     4243.930463        0.003693
  911    -3844.317000     4270.713293     4270.713293        0.003687
  912     -919.601000     4297.633246     4297.633246        0.003681
  913     -613.717400     4324.673932     4324.673932        0.003675
  914    -2071.967000     4351.908927     4351.908927        0.003669
  915    -7322.588000     4379.276031     4379.276031        0.003662
  916     -496.655900     4406.777717     4406.777717        0.003656
  917      292.948000     4434.468706     4434.468706        0.003650
  918    -3985.256000     4462.303815     4462.303815        0.003644
  919     2502.711000     4490.265616     4490.265616        0.003637
  920    -3504.144000     4518.419954     4518.419954        0.003631
  921    -2401.425000     4546.711372     4546.711372        0.003626
  922    -6283.289000     4575.203711     4575.203711        0.003620
  923    -1855.637000     4603.770465     4603.770465        0.003614
  924    -4318.118000     4632.587673     4632.587673        0.003609
  925     2737.389000     4661.487048     4661.487048        0.003603
  926     8284.447000     4690.649013     4690.649013        0.003598
  927     3768.708000     4719.890834     4719.890834        0.003593
  928    -7807.494000     4749.327870     4749.327870        0.003588
  929     3455.229000     4778.905220     4778.905220        0.003583
  930     1483.807000     4808.679966     4808.679966        0.003579
  931    -8459.766000     4838.667926     4838.667926        0.003575
  932    -4734.700000     4868.756028     4868.756028        0.003570
  933     4234.548000     4899.020000     4899.020000        0.003566
  934    -4576.895000     4929.484595     4929.484595        0.003562
  935     1117.170000     4960.146811     4960.146811        0.003559
  936    -7331.350000     4991.058243     4991.058243        0.003555
  937    -4993.157000     5021.985164     5021.985164        0.003552
  938     6685.088000     5053.177219     5053.177219        0.003548
  939    -1097.757000     5084.607481     5084.607481        0.003545
  940    -7129.778000     5116.059525     5116.059525        0.003542
  941     1561.933000     5147.810717     5147.810717        0.003539
  942     6937.439000     5179.758924     5179.758924        0.003536
  943    -5653.183000     5211.892378     5211.892378        0.003533
  944    -4806.205000     5244.151197     5244.151197        0.003529
  945    -6305.415000     5276.601509     5276.601509        0.003526
  946     -198.266600     5309.338400     5309.338400        0.003523
  947    -6134.058000     5342.199851     5342.199851        0.003520
  948    -9180.611000     5375.243276     5375.243276        0.003517
  949     2264.730000     5408.641051     5408.641051        0.003513
  950    -7095.193000     5441.990033     5441.990033        0.003510
  951    -1306.672000     5475.687538     5475.687538        0.003507
  952    -1721.252000     5509.662414     5509.662414        0.003503
  953    -2412.483000     5543.652676     5543.652676        0.003499
  954     1783.258000     5577.921827     5577.921827        0.003495
  955     4271.417000     5612.458792     5612.458792        0.003491
  956    -5067.245000     5647.155284     5647.155284        0.003487
  957    -6922.542000     5682.047091     5682.047091        0.003482
  958     4831.621000     5717.208067     5717.208067        0.003477
  959    -9246.127000     5752.543146     5752.543146        0.003472
  960     -822.483400     5788.051902     5788.051902        0.003467
  961    -5796.197000     5823.822533     5823.822533        0.003462
  962     6671.644000     5859.838334     5859.838334        0.003457
  963     5802.568000     5896.038713     5896.038713        0.003451
  964    -8197.375000     5932.410658     5932.410658        0.003445
  965     9798.367000     5969.109197     5969.109197        0.003439
  966   -11879.700000     6005.986480     6005.986480        0.003433
  967    -9745.382000     6043.022704     6043.022704        0.003427
  968    -8751.540000     6080.385374     6080.385374        0.003421
  969    -9451.888000     6117.989424     6117.989424        0.003415
  970     6819.085000     6155.685760     6155.685760        0.003408
  971    -8130.448000     6193.771664     6193.771664        0.003401
  972    -8485.035000     6231.951224     6231.951224        0.003395
  973     1749.892000     6270.447588     6270.447588        0.003388
  974     9563.194000     6309.173474     6309.173474        0.003382
  975    -2420.624000     6348.137935     6348.137935        0.003375
  976    -3870.509000     6387.269201     6387.269201        0.003368
  977    -5331.033000     6426.772150     6426.772150        0.003362
  978     7958.546000     6466.370136     6466.370136        0.003355
  979    -2146.984000     6506.337944     6506.337944        0.003349
  980     3696.599000     6546.467607     6546.467607        0.003343
  981    -4770.404000     6586.968200     6586.968200        0.003336
  982    -4635.698000     6627.628056     6627.628056        0.003330
  983     3835.875000     6668.519713     6668.519713        0.003325
  984     9851.476000     6709.772884     6709.772884        0.003319
  985    -1284.153000     6751.186729     6751.186729        0.003314
  986     -443.926600     6792.885291     6792.885291        0.003308
  987    -7620.653000     6834.891279     6834.891279        0.003303
  988     4723.215000     6877.035040     6877.035040        0.003298
  989    11335.710000     6919.549981     6919.549981        0.003294
  990    -8805.089000     6962.220813     6962.220813        0.003289
  991    -8335.108000     7005.244956     7005.244956        0.003285
  992   -16223.720000     7048.557258     7048.557258        0.003281
  993     2796.213000     7092.159430     7092.159430        0.003278
  994     2304.189000     7135.993225     7135.993225        0.003274
  995     2892.761000     7180.094483     7180.094483        0.003271
  996    -4146.981000     7224.481639     7224.481639        0.003268
  997   -12126.610000     7269.156010     7269.156010        0.003265
  998     3147.760000     7314.192454     7314.192454        0.003263
  999     2640.287000     7359.434390     7359.434390        0.003261
 1000     4652.652000     7404.961156     7404.961156        0.003258
 1001     7775.084000     7450.770873     7450.770873        0.003256
 1002    -4899.316000     7496.919430     7496.919430        0.003254
 1003    -4062.371000     7543.294871     7543.294871        0.003252
 1004     3743.400000     7590.001430     7590.001430        0.003251
 1005    -9175.784000     7637.071748     7637.071748        0.003249
 1006     1125.792000     7684.390441     7684.390441        0.003247
 1007    10633.760000     7732.064038     7732.064038        0.003246
 1008    20177.090000     7779.942584     7779.942584        0.003244
 1009     3333.060000     7828.176175     7828.176175        0.003243
 1010     9547.229000     7876.812786     7876.812786        0.003241
 1011     9311.998000     7925.651013     7925.651013        0.003239
 1012     9356.567000     7974.890206     7974.890206        0.003238
 1013     5021.563000     8024.401951     8024.401951        0.003236
 1014    -9168.199000     8074.318894     8074.318894        0.003234
 1015   -11225.940000     8124.507603     8124.507603        0.003232
 1016    -7201.646000     8175.017542     8175.017542        0.003230
 1017      641.014600     8225.800016     8225.800016        0.003228
 1018     3580.585000     8277.063238     8277.063238        0.003226
 1019    -7731.771000     8328.552729     8328.552729        0.003223
 1020     7325.695000     8380.446970     8380.446970        0.003221
 1021     8549.777000     8432.689848     8432.689848        0.003218
 1022     1401.987000     8485.245438     8485.245438        0.003215
 1023    -7365.609000     8538.190894     8538.190894        0.003212
 1024     6345.351000     8591.450989     8591.450989        0.003209
